DATATYPE	 IR Spectrum
XYUNITS	 Wavenumber;PercentTransmittance
DECIMALSYMBOL	 .
550.00	 97.77
551.00	 97.78
552.00	 97.66
553.00	 97.55
554.00	 97.64
555.00	 97.77
556.00	 97.78
557.00	 97.76
558.00	 97.85
559.00	 97.92
560.00	 97.83
561.00	 97.72
562.00	 97.72
563.00	 97.73
564.00	 97.62
565.00	 97.52
566.00	 97.56
567.00	 97.66
568.00	 97.68
569.00	 97.71
570.00	 97.83
571.00	 97.92
572.00	 97.84
573.00	 97.72
574.00	 97.73
575.00	 97.81
576.00	 97.82
577.00	 97.78
578.00	 97.76
579.00	 97.70
580.00	 97.56
581.00	 97.48
582.00	 97.56
583.00	 97.67
584.00	 97.67
585.00	 97.64
586.00	 97.66
587.00	 97.64
588.00	 97.53
589.00	 97.44
590.00	 97.51
591.00	 97.65
592.00	 97.70
593.00	 97.66
594.00	 97.63
595.00	 97.62
596.00	 97.58
597.00	 97.54
598.00	 97.53
599.00	 97.54
600.00	 97.51
601.00	 97.49
602.00	 97.52
603.00	 97.54
604.00	 97.50
605.00	 97.47
606.00	 97.52
607.00	 97.59
608.00	 97.59
609.00	 97.58
610.00	 97.61
611.00	 97.63
612.00	 97.58
613.00	 97.52
614.00	 97.54
615.00	 97.59
616.00	 97.63
617.00	 97.64
618.00	 97.66
619.00	 97.64
620.00	 97.55
621.00	 97.48
622.00	 97.50
623.00	 97.55
624.00	 97.54
625.00	 97.52
626.00	 97.54
627.00	 97.59
628.00	 97.61
629.00	 97.61
630.00	 97.63
631.00	 97.64
632.00	 97.60
633.00	 97.55
634.00	 97.56
635.00	 97.60
636.00	 97.60
637.00	 97.59
638.00	 97.59
639.00	 97.58
640.00	 97.55
641.00	 97.54
642.00	 97.57
643.00	 97.59
644.00	 97.58
645.00	 97.55
646.00	 97.57
647.00	 97.60
648.00	 97.60
649.00	 97.58
650.00	 97.59
651.00	 97.58
652.00	 97.55
653.00	 97.51
654.00	 97.51
655.00	 97.54
656.00	 97.54
657.00	 97.53
658.00	 97.54
659.00	 97.53
660.00	 97.49
661.00	 97.44
662.00	 97.44
663.00	 97.47
664.00	 97.48
665.00	 97.47
666.00	 97.44
667.00	 97.42
668.00	 97.41
669.00	 97.40
670.00	 97.41
671.00	 97.43
672.00	 97.41
673.00	 97.38
674.00	 97.38
675.00	 97.42
676.00	 97.43
677.00	 97.41
678.00	 97.39
679.00	 97.35
680.00	 97.29
681.00	 97.23
682.00	 97.22
683.00	 97.22
684.00	 97.20
685.00	 97.17
686.00	 97.14
687.00	 97.11
688.00	 97.05
689.00	 96.98
690.00	 96.94
691.00	 96.91
692.00	 96.88
693.00	 96.85
694.00	 96.84
695.00	 96.81
696.00	 96.75
697.00	 96.66
698.00	 96.60
699.00	 96.54
700.00	 96.45
701.00	 96.33
702.00	 96.21
703.00	 96.06
704.00	 95.87
705.00	 95.63
706.00	 95.40
707.00	 95.15
708.00	 94.84
709.00	 94.46
710.00	 93.99
711.00	 93.41
712.00	 92.64
713.00	 91.59
714.00	 90.23
715.00	 88.53
716.00	 86.50
717.00	 84.38
718.00	 82.70
719.00	 82.13
720.00	 83.06
721.00	 85.19
722.00	 87.70
723.00	 89.79
724.00	 91.09
725.00	 91.65
726.00	 91.59
727.00	 90.88
728.00	 89.57
729.00	 88.04
730.00	 87.06
731.00	 87.32
732.00	 88.89
733.00	 91.21
734.00	 93.44
735.00	 95.04
736.00	 95.96
737.00	 96.46
738.00	 96.76
739.00	 96.96
740.00	 97.10
741.00	 97.20
742.00	 97.29
743.00	 97.36
744.00	 97.39
745.00	 97.42
746.00	 97.46
747.00	 97.49
748.00	 97.51
749.00	 97.55
750.00	 97.59
751.00	 97.61
752.00	 97.61
753.00	 97.62
754.00	 97.64
755.00	 97.65
756.00	 97.64
757.00	 97.65
758.00	 97.68
759.00	 97.70
760.00	 97.70
761.00	 97.68
762.00	 97.67
763.00	 97.67
764.00	 97.67
765.00	 97.68
766.00	 97.70
767.00	 97.72
768.00	 97.72
769.00	 97.71
770.00	 97.70
771.00	 97.70
772.00	 97.69
773.00	 97.70
774.00	 97.73
775.00	 97.74
776.00	 97.72
777.00	 97.69
778.00	 97.67
779.00	 97.68
780.00	 97.68
781.00	 97.69
782.00	 97.70
783.00	 97.71
784.00	 97.70
785.00	 97.69
786.00	 97.68
787.00	 97.65
788.00	 97.61
789.00	 97.58
790.00	 97.58
791.00	 97.59
792.00	 97.57
793.00	 97.53
794.00	 97.50
795.00	 97.47
796.00	 97.44
797.00	 97.42
798.00	 97.41
799.00	 97.40
800.00	 97.39
801.00	 97.38
802.00	 97.40
803.00	 97.42
804.00	 97.43
805.00	 97.43
806.00	 97.45
807.00	 97.45
808.00	 97.45
809.00	 97.45
810.00	 97.48
811.00	 97.51
812.00	 97.52
813.00	 97.51
814.00	 97.51
815.00	 97.52
816.00	 97.53
817.00	 97.54
818.00	 97.57
819.00	 97.60
820.00	 97.61
821.00	 97.63
822.00	 97.65
823.00	 97.67
824.00	 97.67
825.00	 97.68
826.00	 97.72
827.00	 97.75
828.00	 97.78
829.00	 97.80
830.00	 97.83
831.00	 97.85
832.00	 97.85
833.00	 97.85
834.00	 97.85
835.00	 97.87
836.00	 97.88
837.00	 97.89
838.00	 97.91
839.00	 97.92
840.00	 97.91
841.00	 97.91
842.00	 97.92
843.00	 97.93
844.00	 97.93
845.00	 97.93
846.00	 97.95
847.00	 97.97
848.00	 97.97
849.00	 97.97
850.00	 97.97
851.00	 97.96
852.00	 97.94
853.00	 97.92
854.00	 97.91
855.00	 97.92
856.00	 97.93
857.00	 97.93
858.00	 97.94
859.00	 97.95
860.00	 97.95
861.00	 97.96
862.00	 97.96
863.00	 97.96
864.00	 97.95
865.00	 97.93
866.00	 97.92
867.00	 97.92
868.00	 97.92
869.00	 97.93
870.00	 97.94
871.00	 97.96
872.00	 97.96
873.00	 97.95
874.00	 97.96
875.00	 97.97
876.00	 97.97
877.00	 97.97
878.00	 97.98
879.00	 97.99
880.00	 97.99
881.00	 97.99
882.00	 97.98
883.00	 97.98
884.00	 97.97
885.00	 97.97
886.00	 97.97
887.00	 97.97
888.00	 97.97
889.00	 97.98
890.00	 97.99
891.00	 98.01
892.00	 98.01
893.00	 98.02
894.00	 98.02
895.00	 98.03
896.00	 98.02
897.00	 98.02
898.00	 98.02
899.00	 98.02
900.00	 98.02
901.00	 98.02
902.00	 98.03
903.00	 98.05
904.00	 98.05
905.00	 98.04
906.00	 98.03
907.00	 98.03
908.00	 98.01
909.00	 98.01
910.00	 98.03
911.00	 98.04
912.00	 98.05
913.00	 98.04
914.00	 98.04
915.00	 98.03
916.00	 98.03
917.00	 98.02
918.00	 98.02
919.00	 98.03
920.00	 98.02
921.00	 98.02
922.00	 98.02
923.00	 98.02
924.00	 98.02
925.00	 98.01
926.00	 98.01
927.00	 98.01
928.00	 98.01
929.00	 98.02
930.00	 98.02
931.00	 98.03
932.00	 98.01
933.00	 98.00
934.00	 98.00
935.00	 98.01
936.00	 98.01
937.00	 98.02
938.00	 98.03
939.00	 98.04
940.00	 98.04
941.00	 98.03
942.00	 98.04
943.00	 98.04
944.00	 98.04
945.00	 98.03
946.00	 98.03
947.00	 98.03
948.00	 98.02
949.00	 98.00
950.00	 97.99
951.00	 97.99
952.00	 97.98
953.00	 97.97
954.00	 97.97
955.00	 97.96
956.00	 97.95
957.00	 97.94
958.00	 97.94
959.00	 97.93
960.00	 97.92
961.00	 97.91
962.00	 97.91
963.00	 97.92
964.00	 97.92
965.00	 97.92
966.00	 97.92
967.00	 97.92
968.00	 97.92
969.00	 97.90
970.00	 97.91
971.00	 97.91
972.00	 97.92
973.00	 97.92
974.00	 97.93
975.00	 97.95
976.00	 97.96
977.00	 97.96
978.00	 97.96
979.00	 97.96
980.00	 97.95
981.00	 97.94
982.00	 97.93
983.00	 97.93
984.00	 97.93
985.00	 97.92
986.00	 97.92
987.00	 97.92
988.00	 97.90
989.00	 97.88
990.00	 97.86
991.00	 97.85
992.00	 97.83
993.00	 97.83
994.00	 97.83
995.00	 97.83
996.00	 97.82
997.00	 97.82
998.00	 97.81
999.00	 97.81
1000.00	 97.79
1001.00	 97.78
1002.00	 97.76
1003.00	 97.74
1004.00	 97.71
1005.00	 97.68
1006.00	 97.66
1007.00	 97.64
1008.00	 97.62
1009.00	 97.60
1010.00	 97.57
1011.00	 97.55
1012.00	 97.51
1013.00	 97.48
1014.00	 97.47
1015.00	 97.45
1016.00	 97.44
1017.00	 97.42
1018.00	 97.41
1019.00	 97.39
1020.00	 97.37
1021.00	 97.35
1022.00	 97.35
1023.00	 97.35
1024.00	 97.34
1025.00	 97.34
1026.00	 97.34
1027.00	 97.34
1028.00	 97.33
1029.00	 97.32
1030.00	 97.33
1031.00	 97.34
1032.00	 97.33
1033.00	 97.32
1034.00	 97.31
1035.00	 97.30
1036.00	 97.29
1037.00	 97.29
1038.00	 97.29
1039.00	 97.30
1040.00	 97.30
1041.00	 97.29
1042.00	 97.29
1043.00	 97.30
1044.00	 97.31
1045.00	 97.31
1046.00	 97.31
1047.00	 97.31
1048.00	 97.30
1049.00	 97.28
1050.00	 97.26
1051.00	 97.25
1052.00	 97.25
1053.00	 97.26
1054.00	 97.28
1055.00	 97.30
1056.00	 97.30
1057.00	 97.30
1058.00	 97.29
1059.00	 97.28
1060.00	 97.26
1061.00	 97.25
1062.00	 97.25
1063.00	 97.25
1064.00	 97.24
1065.00	 97.23
1066.00	 97.23
1067.00	 97.22
1068.00	 97.22
1069.00	 97.22
1070.00	 97.22
1071.00	 97.23
1072.00	 97.22
1073.00	 97.21
1074.00	 97.19
1075.00	 97.17
1076.00	 97.15
1077.00	 97.13
1078.00	 97.12
1079.00	 97.10
1080.00	 97.07
1081.00	 97.05
1082.00	 97.04
1083.00	 97.04
1084.00	 97.04
1085.00	 97.05
1086.00	 97.06
1087.00	 97.07
1088.00	 97.07
1089.00	 97.07
1090.00	 97.07
1091.00	 97.07
1092.00	 97.07
1093.00	 97.06
1094.00	 97.07
1095.00	 97.07
1096.00	 97.05
1097.00	 97.04
1098.00	 97.03
1099.00	 97.02
1100.00	 97.03
1101.00	 97.03
1102.00	 97.05
1103.00	 97.06
1104.00	 97.08
1105.00	 97.08
1106.00	 97.09
1107.00	 97.10
1108.00	 97.10
1109.00	 97.10
1110.00	 97.11
1111.00	 97.12
1112.00	 97.13
1113.00	 97.15
1114.00	 97.18
1115.00	 97.20
1116.00	 97.20
1117.00	 97.17
1118.00	 97.16
1119.00	 97.17
1120.00	 97.21
1121.00	 97.25
1122.00	 97.29
1123.00	 97.32
1124.00	 97.32
1125.00	 97.33
1126.00	 97.33
1127.00	 97.34
1128.00	 97.35
1129.00	 97.37
1130.00	 97.39
1131.00	 97.41
1132.00	 97.42
1133.00	 97.43
1134.00	 97.45
1135.00	 97.48
1136.00	 97.51
1137.00	 97.53
1138.00	 97.54
1139.00	 97.55
1140.00	 97.54
1141.00	 97.54
1142.00	 97.54
1143.00	 97.56
1144.00	 97.57
1145.00	 97.59
1146.00	 97.61
1147.00	 97.62
1148.00	 97.62
1149.00	 97.62
1150.00	 97.62
1151.00	 97.62
1152.00	 97.63
1153.00	 97.64
1154.00	 97.65
1155.00	 97.65
1156.00	 97.65
1157.00	 97.65
1158.00	 97.65
1159.00	 97.65
1160.00	 97.66
1161.00	 97.66
1162.00	 97.66
1163.00	 97.67
1164.00	 97.67
1165.00	 97.67
1166.00	 97.67
1167.00	 97.68
1168.00	 97.68
1169.00	 97.68
1170.00	 97.68
1171.00	 97.69
1172.00	 97.69
1173.00	 97.69
1174.00	 97.69
1175.00	 97.68
1176.00	 97.67
1177.00	 97.66
1178.00	 97.68
1179.00	 97.70
1180.00	 97.72
1181.00	 97.73
1182.00	 97.75
1183.00	 97.76
1184.00	 97.76
1185.00	 97.75
1186.00	 97.76
1187.00	 97.77
1188.00	 97.77
1189.00	 97.77
1190.00	 97.76
1191.00	 97.76
1192.00	 97.77
1193.00	 97.78
1194.00	 97.80
1195.00	 97.81
1196.00	 97.82
1197.00	 97.82
1198.00	 97.83
1199.00	 97.84
1200.00	 97.84
1201.00	 97.83
1202.00	 97.82
1203.00	 97.82
1204.00	 97.83
1205.00	 97.83
1206.00	 97.84
1207.00	 97.85
1208.00	 97.85
1209.00	 97.84
1210.00	 97.84
1211.00	 97.84
1212.00	 97.83
1213.00	 97.82
1214.00	 97.82
1215.00	 97.83
1216.00	 97.83
1217.00	 97.84
1218.00	 97.84
1219.00	 97.84
1220.00	 97.84
1221.00	 97.84
1222.00	 97.84
1223.00	 97.84
1224.00	 97.84
1225.00	 97.84
1226.00	 97.84
1227.00	 97.84
1228.00	 97.83
1229.00	 97.82
1230.00	 97.81
1231.00	 97.82
1232.00	 97.82
1233.00	 97.82
1234.00	 97.82
1235.00	 97.81
1236.00	 97.81
1237.00	 97.80
1238.00	 97.80
1239.00	 97.80
1240.00	 97.79
1241.00	 97.78
1242.00	 97.78
1243.00	 97.78
1244.00	 97.77
1245.00	 97.76
1246.00	 97.75
1247.00	 97.73
1248.00	 97.72
1249.00	 97.71
1250.00	 97.70
1251.00	 97.69
1252.00	 97.66
1253.00	 97.63
1254.00	 97.59
1255.00	 97.56
1256.00	 97.51
1257.00	 97.46
1258.00	 97.40
1259.00	 97.35
1260.00	 97.30
1261.00	 97.27
1262.00	 97.25
1263.00	 97.25
1264.00	 97.27
1265.00	 97.30
1266.00	 97.34
1267.00	 97.39
1268.00	 97.44
1269.00	 97.49
1270.00	 97.53
1271.00	 97.57
1272.00	 97.61
1273.00	 97.64
1274.00	 97.66
1275.00	 97.67
1276.00	 97.68
1277.00	 97.69
1278.00	 97.69
1279.00	 97.70
1280.00	 97.71
1281.00	 97.71
1282.00	 97.71
1283.00	 97.70
1284.00	 97.69
1285.00	 97.69
1286.00	 97.68
1287.00	 97.68
1288.00	 97.68
1289.00	 97.67
1290.00	 97.66
1291.00	 97.65
1292.00	 97.64
1293.00	 97.63
1294.00	 97.62
1295.00	 97.61
1296.00	 97.60
1297.00	 97.58
1298.00	 97.58
1299.00	 97.58
1300.00	 97.58
1301.00	 97.57
1302.00	 97.57
1303.00	 97.58
1304.00	 97.58
1305.00	 97.57
1306.00	 97.58
1307.00	 97.58
1308.00	 97.58
1309.00	 97.58
1310.00	 97.59
1311.00	 97.60
1312.00	 97.61
1313.00	 97.62
1314.00	 97.64
1315.00	 97.66
1316.00	 97.68
1317.00	 97.69
1318.00	 97.71
1319.00	 97.72
1320.00	 97.73
1321.00	 97.75
1322.00	 97.77
1323.00	 97.79
1324.00	 97.80
1325.00	 97.81
1326.00	 97.81
1327.00	 97.81
1328.00	 97.82
1329.00	 97.82
1330.00	 97.82
1331.00	 97.83
1332.00	 97.83
1333.00	 97.83
1334.00	 97.84
1335.00	 97.83
1336.00	 97.82
1337.00	 97.79
1338.00	 97.76
1339.00	 97.73
1340.00	 97.69
1341.00	 97.67
1342.00	 97.65
1343.00	 97.64
1344.00	 97.63
1345.00	 97.61
1346.00	 97.58
1347.00	 97.54
1348.00	 97.51
1349.00	 97.48
1350.00	 97.46
1351.00	 97.45
1352.00	 97.45
1353.00	 97.45
1354.00	 97.45
1355.00	 97.45
1356.00	 97.46
1357.00	 97.47
1358.00	 97.47
1359.00	 97.47
1360.00	 97.45
1361.00	 97.42
1362.00	 97.38
1363.00	 97.35
1364.00	 97.32
1365.00	 97.28
1366.00	 97.25
1367.00	 97.23
1368.00	 97.23
1369.00	 97.23
1370.00	 97.25
1371.00	 97.29
1372.00	 97.34
1373.00	 97.39
1374.00	 97.44
1375.00	 97.49
1376.00	 97.52
1377.00	 97.53
1378.00	 97.54
1379.00	 97.57
1380.00	 97.61
1381.00	 97.65
1382.00	 97.70
1383.00	 97.74
1384.00	 97.77
1385.00	 97.80
1386.00	 97.81
1387.00	 97.83
1388.00	 97.83
1389.00	 97.83
1390.00	 97.83
1391.00	 97.83
1392.00	 97.83
1393.00	 97.82
1394.00	 97.82
1395.00	 97.82
1396.00	 97.82
1397.00	 97.81
1398.00	 97.80
1399.00	 97.79
1400.00	 97.79
1401.00	 97.78
1402.00	 97.77
1403.00	 97.77
1404.00	 97.76
1405.00	 97.75
1406.00	 97.73
1407.00	 97.72
1408.00	 97.71
1409.00	 97.69
1410.00	 97.68
1411.00	 97.68
1412.00	 97.68
1413.00	 97.67
1414.00	 97.65
1415.00	 97.64
1416.00	 97.63
1417.00	 97.61
1418.00	 97.59
1419.00	 97.58
1420.00	 97.55
1421.00	 97.52
1422.00	 97.48
1423.00	 97.45
1424.00	 97.41
1425.00	 97.35
1426.00	 97.29
1427.00	 97.23
1428.00	 97.16
1429.00	 97.07
1430.00	 96.98
1431.00	 96.89
1432.00	 96.80
1433.00	 96.71
1434.00	 96.63
1435.00	 96.56
1436.00	 96.48
1437.00	 96.40
1438.00	 96.34
1439.00	 96.27
1440.00	 96.20
1441.00	 96.13
1442.00	 96.06
1443.00	 96.01
1444.00	 95.95
1445.00	 95.87
1446.00	 95.80
1447.00	 95.73
1448.00	 95.62
1449.00	 95.47
1450.00	 95.31
1451.00	 95.10
1452.00	 94.83
1453.00	 94.49
1454.00	 94.12
1455.00	 93.73
1456.00	 93.25
1457.00	 92.51
1458.00	 91.29
1459.00	 89.60
1460.00	 87.69
1461.00	 85.96
1462.00	 84.85
1463.00	 84.69
1464.00	 85.64
1465.00	 87.32
1466.00	 88.80
1467.00	 89.47
1468.00	 89.50
1469.00	 89.17
1470.00	 88.52
1471.00	 87.53
1472.00	 86.52
1473.00	 86.46
1474.00	 87.92
1475.00	 90.29
1476.00	 92.71
1477.00	 94.70
1478.00	 96.01
1479.00	 96.72
1480.00	 97.10
1481.00	 97.36
1482.00	 97.54
1483.00	 97.66
1484.00	 97.75
1485.00	 97.82
1486.00	 97.87
1487.00	 97.89
1488.00	 97.91
1489.00	 97.94
1490.00	 97.97
1491.00	 97.99
1492.00	 98.01
1493.00	 98.05
1494.00	 98.07
1495.00	 98.08
1496.00	 98.09
1497.00	 98.11
1498.00	 98.13
1499.00	 98.13
1500.00	 98.13
1501.00	 98.15
1502.00	 98.17
1503.00	 98.18
1504.00	 98.19
1505.00	 98.21
1506.00	 98.22
1507.00	 98.20
1508.00	 98.19
1509.00	 98.21
1510.00	 98.21
1511.00	 98.20
1512.00	 98.20
1513.00	 98.21
1514.00	 98.22
1515.00	 98.22
1516.00	 98.22
1517.00	 98.22
1518.00	 98.22
1519.00	 98.22
1520.00	 98.22
1521.00	 98.23
1522.00	 98.24
1523.00	 98.23
1524.00	 98.23
1525.00	 98.23
1526.00	 98.23
1527.00	 98.21
1528.00	 98.19
1529.00	 98.19
1530.00	 98.19
1531.00	 98.19
1532.00	 98.19
1533.00	 98.19
1534.00	 98.18
1535.00	 98.17
1536.00	 98.16
1537.00	 98.17
1538.00	 98.17
1539.00	 98.15
1540.00	 98.12
1541.00	 98.10
1542.00	 98.10
1543.00	 98.10
1544.00	 98.10
1545.00	 98.11
1546.00	 98.12
1547.00	 98.12
1548.00	 98.12
1549.00	 98.12
1550.00	 98.12
1551.00	 98.12
1552.00	 98.13
1553.00	 98.14
1554.00	 98.14
1555.00	 98.13
1556.00	 98.12
1557.00	 98.13
1558.00	 98.13
1559.00	 98.12
1560.00	 98.13
1561.00	 98.12
1562.00	 98.11
1563.00	 98.11
1564.00	 98.11
1565.00	 98.11
1566.00	 98.11
1567.00	 98.11
1568.00	 98.10
1569.00	 98.09
1570.00	 98.08
1571.00	 98.08
1572.00	 98.07
1573.00	 98.07
1574.00	 98.06
1575.00	 98.05
1576.00	 98.04
1577.00	 98.02
1578.00	 98.01
1579.00	 98.00
1580.00	 98.00
1581.00	 97.99
1582.00	 97.99
1583.00	 97.98
1584.00	 97.97
1585.00	 97.96
1586.00	 97.95
1587.00	 97.94
1588.00	 97.94
1589.00	 97.94
1590.00	 97.94
1591.00	 97.94
1592.00	 97.93
1593.00	 97.93
1594.00	 97.94
1595.00	 97.94
1596.00	 97.94
1597.00	 97.94
1598.00	 97.94
1599.00	 97.94
1600.00	 97.95
1601.00	 97.96
1602.00	 97.96
1603.00	 97.96
1604.00	 97.96
1605.00	 97.96
1606.00	 97.96
1607.00	 97.96
1608.00	 97.95
1609.00	 97.95
1610.00	 97.95
1611.00	 97.96
1612.00	 97.96
1613.00	 97.97
1614.00	 97.97
1615.00	 97.97
1616.00	 97.97
1617.00	 97.97
1618.00	 97.96
1619.00	 97.96
1620.00	 97.95
1621.00	 97.94
1622.00	 97.94
1623.00	 97.94
1624.00	 97.94
1625.00	 97.95
1626.00	 97.96
1627.00	 97.95
1628.00	 97.94
1629.00	 97.93
1630.00	 97.93
1631.00	 97.92
1632.00	 97.91
1633.00	 97.91
1634.00	 97.91
1635.00	 97.91
1636.00	 97.92
1637.00	 97.93
1638.00	 97.93
1639.00	 97.93
1640.00	 97.92
1641.00	 97.92
1642.00	 97.92
1643.00	 97.92
1644.00	 97.92
1645.00	 97.92
1646.00	 97.92
1647.00	 97.92
1648.00	 97.92
1649.00	 97.92
1650.00	 97.91
1651.00	 97.91
1652.00	 97.90
1653.00	 97.90
1654.00	 97.93
1655.00	 97.94
1656.00	 97.93
1657.00	 97.94
1658.00	 97.94
1659.00	 97.94
1660.00	 97.94
1661.00	 97.94
1662.00	 97.94
1663.00	 97.95
1664.00	 97.97
1665.00	 97.98
1666.00	 97.99
1667.00	 98.00
1668.00	 98.01
1669.00	 98.02
1670.00	 98.04
1671.00	 98.06
1672.00	 98.07
1673.00	 98.08
1674.00	 98.09
1675.00	 98.09
1676.00	 98.11
1677.00	 98.13
1678.00	 98.14
1679.00	 98.15
1680.00	 98.16
1681.00	 98.18
1682.00	 98.20
1683.00	 98.21
1684.00	 98.22
1685.00	 98.24
1686.00	 98.24
1687.00	 98.24
1688.00	 98.25
1689.00	 98.26
1690.00	 98.27
1691.00	 98.28
1692.00	 98.29
1693.00	 98.30
1694.00	 98.32
1695.00	 98.32
1696.00	 98.30
1697.00	 98.29
1698.00	 98.29
1699.00	 98.30
1700.00	 98.30
1701.00	 98.31
1702.00	 98.32
1703.00	 98.33
1704.00	 98.33
1705.00	 98.33
1706.00	 98.32
1707.00	 98.32
1708.00	 98.31
1709.00	 98.30
1710.00	 98.30
1711.00	 98.30
1712.00	 98.30
1713.00	 98.30
1714.00	 98.30
1715.00	 98.29
1716.00	 98.27
1717.00	 98.26
1718.00	 98.28
1719.00	 98.29
1720.00	 98.30
1721.00	 98.30
1722.00	 98.30
1723.00	 98.30
1724.00	 98.29
1725.00	 98.28
1726.00	 98.28
1727.00	 98.28
1728.00	 98.27
1729.00	 98.27
1730.00	 98.26
1731.00	 98.26
1732.00	 98.25
1733.00	 98.25
1734.00	 98.25
1735.00	 98.25
1736.00	 98.24
1737.00	 98.24
1738.00	 98.24
1739.00	 98.23
1740.00	 98.23
1741.00	 98.24
1742.00	 98.26
1743.00	 98.28
1744.00	 98.30
1745.00	 98.32
1746.00	 98.34
1747.00	 98.36
1748.00	 98.39
1749.00	 98.41
1750.00	 98.43
1751.00	 98.44
1752.00	 98.46
1753.00	 98.49
1754.00	 98.52
1755.00	 98.55
1756.00	 98.58
1757.00	 98.61
1758.00	 98.63
1759.00	 98.64
1760.00	 98.65
1761.00	 98.66
1762.00	 98.67
1763.00	 98.67
1764.00	 98.68
1765.00	 98.69
1766.00	 98.71
1767.00	 98.71
1768.00	 98.72
1769.00	 98.72
1770.00	 98.72
1771.00	 98.73
1772.00	 98.73
1773.00	 98.74
1774.00	 98.75
1775.00	 98.75
1776.00	 98.76
1777.00	 98.76
1778.00	 98.76
1779.00	 98.76
1780.00	 98.76
1781.00	 98.75
1782.00	 98.75
1783.00	 98.75
1784.00	 98.75
1785.00	 98.75
1786.00	 98.74
1787.00	 98.74
1788.00	 98.74
1789.00	 98.75
1790.00	 98.76
1791.00	 98.76
1792.00	 98.75
1793.00	 98.75
1794.00	 98.76
1795.00	 98.76
1796.00	 98.77
1797.00	 98.77
1798.00	 98.77
1799.00	 98.78
1800.00	 98.79
1801.00	 98.80
1802.00	 98.79
1803.00	 98.79
1804.00	 98.79
1805.00	 98.80
1806.00	 98.82
1807.00	 98.82
1808.00	 98.82
1809.00	 98.81
1810.00	 98.81
1811.00	 98.81
1812.00	 98.81
1813.00	 98.81
1814.00	 98.81
1815.00	 98.82
1816.00	 98.82
1817.00	 98.83
1818.00	 98.83
1819.00	 98.82
1820.00	 98.81
1821.00	 98.80
